[Measurement conditions]
Sample identification,
Comment - 1,"Configuration=Reflection-transmission Spinner, Owner=User-1, Creation date=6/1/2015 7:12:58 PM"
Comment - 2,"Goniometer=Theta/Theta; Minimum step size 2Theta:0.0001; Minimum step size Omega:0.0001"
Comment - 3,"Sample stage=Reflection-transmission spinner; Minimum step size Phi:0.1"
Comment - 4,"Diffractometer system=EMPYREAN"
Comment - 5,"Measurement program=C:\XRD Data\Programs\Tosca Group\Nick\Nick_absolute_scan_CLAYSCAN.xrdmp, Identifier={8AE44CAB-C35C-4B16-AEF4-F65C0B9E5FF8}"
Comment - 6,"Batch program=C:\XRD Data\Programs\Tosca Group\Nick\Nick_batch_scan_2.xrdmp, Identifier={0D27121D-1F70-4E1C-B072-8710C01E5568}"
Anode material,Co
K-Alpha1 wavelength,1.7890100
K-Alpha2 wavelength,1.7929000
Ratio K-Alpha2/K-Alpha1,0.500
Divergence slit,Fixed,0.5
Monochromator used,NO
Generator voltage, 40
Tube current, 40
File date and time,20/Jan/2020 17:02
Unit cell,
h k l, 0 0 0
Scan axis,Gonio
Scan range,5.005199997,45.000040503
Scan step size,0.0262606
No. of points, 1523
Scan type,CONTINUOUS
Phi,223.9
Time per step,197.115
[Scan points]
Angle,Intensity
5.020000000,14814.6
5.040000000,14738.5
5.060000000,14854.2
5.080000000,14802.4
5.100000000,14571.1
5.120000000,14856.0
5.140000000,14772.3
5.160000000,14773.8
5.180000000,14880.2
5.200000000,14817.7
5.220000000,14832.1
5.240000000,14870.2
5.260000000,14928.9
5.280000000,15015.0
5.300000000,14895.6
5.320000000,14807.6
5.340000000,14747.8
5.360000000,14701.4
5.380000000,14872.0
5.400000000,14869.1
5.420000000,14746.0
5.440000000,14574.0
5.460000000,14694.4
5.480000000,14767.1
5.500000000,14760.7
5.520000000,14721.2
5.540000000,14972.5
5.560000000,14810.2
5.580000000,14843.5
5.600000000,15074.6
5.620000000,14996.1
5.640000000,15069.1
5.660000000,15030.3
5.680000000,14915.6
5.700000000,14867.7
5.720000000,14969.3
5.740000000,14991.7
5.760000000,14937.0
5.780000000,14828.5
5.800000000,14919.1
5.820000000,15088.9
5.840000000,15176.4
5.860000000,15087.9
5.880000000,15222.0
5.900000000,15150.5
5.920000000,15073.7
5.940000000,15079.0
5.960000000,15110.2
5.980000000,15041.6
6.000000000,15132.7
6.020000000,15334.2
6.040000000,15229.1
6.060000000,15297.3
6.080000000,15300.7
6.100000000,15294.7
6.120000000,15469.8
6.140000000,15573.0
6.160000000,15530.7
6.180000000,15449.1
6.200000000,15468.9
6.220000000,15557.9
6.240000000,15509.4
6.260000000,15510.8
6.280000000,15697.2
6.300000000,15768.8
6.320000000,15710.4
6.340000000,15645.7
6.360000000,15631.4
6.380000000,15617.7
6.400000000,15755.6
6.420000000,15802.3
6.440000000,15755.1
6.460000000,15877.7
6.480000000,15977.2
6.500000000,16045.7
6.520000000,16076.2
6.540000000,16056.4
6.560000000,16089.6
6.580000000,16145.7
6.600000000,16267.7
6.620000000,16515.2
6.640000000,16315.4
6.660000000,16546.5
6.680000000,16798.3
6.700000000,16728.8
6.720000000,16845.3
6.740000000,17068.4
6.760000000,17153.2
6.780000000,17038.1
6.800000000,17246.8
6.820000000,17467.6
6.840000000,17667.9
6.860000000,17845.3
6.880000000,18033.4
6.900000000,18257.5
6.920000000,18613.3
6.940000000,19029.8
6.960000000,19300.2
6.980000000,19621.0
7.000000000,20139.7
7.020000000,20641.2
7.040000000,20798.9
7.060000000,21307.5
7.080000000,21895.2
7.100000000,22442.1
7.120000000,22833.6
7.140000000,22872.4
7.160000000,22984.5
7.180000000,22926.6
7.200000000,22539.0
7.220000000,21697.5
7.240000000,20813.8
7.260000000,20247.5
7.280000000,20031.0
7.300000000,19755.3
7.320000000,19394.2
7.340000000,19098.9
7.360000000,18935.4
7.380000000,18986.5
7.400000000,18828.0
7.420000000,18594.3
7.440000000,18389.5
7.460000000,18349.1
7.480000000,18254.7
7.500000000,18212.5
7.520000000,18102.9
7.540000000,17825.5
7.560000000,17903.2
7.580000000,18008.3
7.600000000,18202.5
7.620000000,18461.5
7.640000000,18242.9
7.660000000,18058.8
7.680000000,18056.8
7.700000000,18245.7
7.720000000,18405.7
7.740000000,18310.5
7.760000000,18345.2
7.780000000,18477.0
7.800000000,18384.1
7.820000000,18511.1
7.840000000,18456.3
7.860000000,18343.9
7.880000000,18455.9
7.900000000,18507.0
7.920000000,18340.2
7.940000000,18316.7
7.960000000,18782.3
7.980000000,18466.2
8.000000000,18493.1
8.020000000,18753.2
8.040000000,19129.4
8.060000000,19227.6
8.080000000,19221.8
8.100000000,19227.2
8.120000000,19304.4
8.140000000,19512.3
8.160000000,19599.7
8.180000000,19699.3
8.200000000,19805.9
8.220000000,19810.5
8.240000000,19974.4
8.260000000,20023.6
8.280000000,20032.3
8.300000000,20193.7
8.320000000,20585.7
8.340000000,20714.8
8.360000000,20734.6
8.380000000,20842.6
8.400000000,20944.7
8.420000000,21107.8
8.440000000,21246.8
8.460000000,21329.1
8.480000000,21669.6
8.500000000,21648.8
8.520000000,21748.7
8.540000000,22097.5
8.560000000,22231.5
8.580000000,22356.1
8.600000000,22571.5
8.620000000,22843.7
8.640000000,22988.4
8.660000000,23361.1
8.680000000,23604.9
8.700000000,23740.5
8.720000000,23904.2
8.740000000,24181.2
8.760000000,24652.6
8.780000000,25038.5
8.800000000,25013.9
8.820000000,25266.7
8.840000000,25636.5
8.860000000,25940.6
8.880000000,26067.1
8.900000000,26361.9
8.920000000,26974.1
8.940000000,27379.1
8.960000000,27432.2
8.980000000,27751.4
9.000000000,28047.5
9.020000000,28412.0
9.040000000,28868.4
9.060000000,29406.8
9.080000000,29553.8
9.100000000,29713.4
9.120000000,29971.6
9.140000000,30368.4
9.160000000,30840.2
9.180000000,31213.7
9.200000000,31587.4
9.220000000,32098.5
9.240000000,32449.7
9.260000000,32862.5
9.280000000,33252.0
9.300000000,33565.9
9.320000000,34048.8
9.340000000,34459.4
9.360000000,34817.8
9.380000000,35116.0
9.400000000,35240.1
9.420000000,35615.3
9.440000000,36007.6
9.460000000,36405.8
9.480000000,37026.5
9.500000000,37357.4
9.520000000,37469.8
9.540000000,37582.6
9.560000000,38133.2
9.580000000,38266.9
9.600000000,38581.2
9.620000000,39015.7
9.640000000,39423.1
9.660000000,39918.1
9.680000000,40254.5
9.700000000,40571.0
9.720000000,41015.3
9.740000000,42012.2
9.760000000,42373.1
9.780000000,42694.6
9.800000000,43351.0
9.820000000,44668.6
9.840000000,45062.7
9.860000000,45668.9
9.880000000,46726.4
9.900000000,47698.2
9.920000000,48599.2
9.940000000,49609.6
9.960000000,50695.2
9.980000000,51699.8
10.000000000,53582.0
10.020000000,55544.4
10.040000000,57631.0
10.060000000,60006.4
10.080000000,61804.4
10.100000000,64298.1
10.120000000,67235.2
10.140000000,70314.3
10.160000000,72763.6
10.180000000,74148.8
10.200000000,73975.1
10.220000000,71789.5
10.240000000,66307.5
10.260000000,59560.0
10.280000000,52428.1
10.300000000,45660.8
10.320000000,41018.1
10.340000000,37225.3
10.360000000,33983.2
10.380000000,31293.0
10.400000000,29312.9
10.420000000,27632.3
10.440000000,26244.4
10.460000000,25097.3
10.480000000,24111.0
10.500000000,23193.7
10.520000000,22311.5
10.540000000,21498.2
10.560000000,20793.4
10.580000000,20398.1
10.600000000,19803.9
10.620000000,19293.8
10.640000000,19002.3
10.660000000,18575.8
10.680000000,17944.3
10.700000000,17523.2
10.720000000,17378.0
10.740000000,17090.1
10.760000000,16677.6
10.780000000,16389.8
10.800000000,16225.0
10.820000000,16031.5
10.840000000,15833.3
10.860000000,15666.4
10.880000000,15559.9
10.900000000,15552.3
10.920000000,15301.3
10.940000000,15207.0
10.960000000,15115.2
10.980000000,14857.2
11.000000000,14634.8
11.020000000,14661.7
11.040000000,14618.9
11.060000000,14338.9
11.080000000,14246.0
11.100000000,14245.0
11.120000000,14200.0
11.140000000,14076.1
11.160000000,13975.6
11.180000000,13837.6
11.200000000,13773.2
11.220000000,13751.9
11.240000000,13612.5
11.260000000,13523.6
11.280000000,13549.8
11.300000000,13600.3
11.320000000,13505.1
11.340000000,13500.3
11.360000000,13478.4
11.380000000,13385.5
11.400000000,13173.2
11.420000000,13015.6
11.440000000,13142.9
11.460000000,13232.2
11.480000000,13102.1
11.500000000,13268.9
11.520000000,13209.5
11.540000000,13068.7
11.560000000,12959.1
11.580000000,13132.0
11.600000000,12975.7
11.620000000,12898.5
11.640000000,12922.4
11.660000000,12789.9
11.680000000,12856.1
11.700000000,12881.9
11.720000000,12817.8
11.740000000,12637.3
11.760000000,12692.3
11.780000000,12716.0
11.800000000,12750.1
11.820000000,12857.1
11.840000000,12761.9
11.860000000,12815.7
11.880000000,12898.6
11.900000000,12910.5
11.920000000,12746.8
11.940000000,12858.6
11.960000000,12980.5
11.980000000,12989.6
12.000000000,12902.8
12.020000000,12766.8
12.040000000,12724.0
12.060000000,12748.8
12.080000000,12627.7
12.100000000,12538.0
12.120000000,12523.8
12.140000000,12567.3
12.160000000,12619.8
12.180000000,12620.1
12.200000000,12617.1
12.220000000,12602.1
12.240000000,12561.0
12.260000000,12602.2
12.280000000,12541.7
12.300000000,12447.3
12.320000000,12386.9
12.340000000,12530.8
12.360000000,12498.0
12.380000000,12484.1
12.400000000,12545.5
12.420000000,12419.1
12.440000000,12604.0
12.460000000,12656.5
12.480000000,12525.6
12.500000000,12507.4
12.520000000,12463.2
12.540000000,12546.9
12.560000000,12651.0
12.580000000,12495.7
12.600000000,12511.2
12.620000000,12498.5
12.640000000,12459.2
12.660000000,12417.3
12.680000000,12457.1
12.700000000,12595.7
12.720000000,12717.7
12.740000000,12709.4
12.760000000,12321.7
12.780000000,12334.3
12.800000000,12422.7
12.820000000,12430.4
12.840000000,12486.8
12.860000000,12474.8
12.880000000,12483.0
12.900000000,12546.1
12.920000000,12684.0
12.940000000,12561.2
12.960000000,12548.9
12.980000000,12612.2
13.000000000,12515.5
13.020000000,12598.0
13.040000000,12619.3
13.060000000,12602.0
13.080000000,12608.9
13.100000000,12743.9
13.120000000,12817.6
13.140000000,12775.2
13.160000000,12592.4
13.180000000,12668.6
13.200000000,12612.1
13.220000000,12551.0
13.240000000,12538.0
13.260000000,12415.4
13.280000000,12504.1
13.300000000,12700.3
13.320000000,12885.1
13.340000000,12729.8
13.360000000,12799.3
13.380000000,12753.9
13.400000000,12632.0
13.420000000,12693.7
13.440000000,12793.7
13.460000000,12959.1
13.480000000,13046.3
13.500000000,12839.1
13.520000000,13180.2
13.540000000,13182.5
13.560000000,13035.3
13.580000000,12954.4
13.600000000,13129.5
13.620000000,13218.8
13.640000000,13298.2
13.660000000,13397.5
13.680000000,13371.6
13.700000000,13371.4
13.720000000,13438.9
13.740000000,13556.1
13.760000000,13575.9
13.780000000,13711.6
13.800000000,13842.5
13.820000000,14007.4
13.840000000,14374.5
13.860000000,14453.9
13.880000000,14625.7
13.900000000,14879.7
13.920000000,15128.8
13.940000000,15505.9
13.960000000,15834.2
13.980000000,16086.8
14.000000000,16255.1
14.020000000,16691.5
14.040000000,17135.6
14.060000000,17703.8
14.080000000,18423.2
14.100000000,18842.9
14.120000000,19738.7
14.140000000,20595.3
14.160000000,21310.2
14.180000000,22387.1
14.200000000,23573.6
14.220000000,24724.4
14.240000000,25953.5
14.260000000,27670.1
14.280000000,29336.9
14.300000000,31030.8
14.320000000,32866.7
14.340000000,35020.5
14.360000000,36921.8
14.380000000,38408.5
14.400000000,39526.2
14.420000000,40326.7
14.440000000,40051.0
14.460000000,38581.0
14.480000000,36061.3
14.500000000,32693.3
14.520000000,29384.2
14.540000000,26099.0
14.560000000,23296.4
14.580000000,21154.2
14.600000000,19554.8
14.620000000,18450.0
14.640000000,17582.7
14.660000000,16839.1
14.680000000,16082.9
14.700000000,15735.6
14.720000000,15159.4
14.740000000,14564.0
14.760000000,14491.6
14.780000000,14070.5
14.800000000,13771.8
14.820000000,13599.1
14.840000000,13519.5
14.860000000,13195.8
14.880000000,12965.1
14.900000000,12815.5
14.920000000,12728.4
14.940000000,12608.0
14.960000000,12549.5
14.980000000,12471.0
15.000000000,12353.0
15.020000000,12300.5
15.040000000,12043.2
15.060000000,11878.6
15.080000000,11866.7
15.100000000,11932.2
15.120000000,11874.3
15.140000000,11858.0
15.160000000,11833.4
15.180000000,11654.5
15.200000000,11552.2
15.220000000,11483.9
15.240000000,11474.2
15.260000000,11553.3
15.280000000,11279.1
15.300000000,11266.5
15.320000000,11281.8
15.340000000,11169.4
15.360000000,11364.3
15.380000000,11262.7
15.400000000,11165.7
15.420000000,11166.6
15.440000000,10922.1
15.460000000,10861.8
15.480000000,10877.3
15.500000000,10930.5
15.520000000,11003.7
15.540000000,10907.4
15.560000000,10866.3
15.580000000,10841.8
15.600000000,10674.2
15.620000000,10683.6
15.640000000,10709.0
15.660000000,10707.2
15.680000000,10639.4
15.700000000,10611.0
15.720000000,10660.6
15.740000000,10743.9
15.760000000,10807.2
15.780000000,10611.5
15.800000000,10631.6
15.820000000,10643.5
15.840000000,10555.9
15.860000000,10555.2
15.880000000,10462.1
15.900000000,10527.2
15.920000000,10714.6
15.940000000,10593.5
15.960000000,10727.0
15.980000000,10724.9
16.000000000,10654.2
16.020000000,10823.3
16.040000000,10840.9
16.060000000,10707.0
16.080000000,10505.1
16.100000000,10351.2
16.120000000,10276.2
16.140000000,10248.9
16.160000000,10254.2
16.180000000,10268.6
16.200000000,10110.2
16.220000000,10150.1
16.240000000,10219.8
16.260000000,10214.5
16.280000000,10069.8
16.300000000,10174.3
16.320000000,10226.1
16.340000000,10154.6
16.360000000,10099.0
16.380000000,10147.0
16.400000000,10084.1
16.420000000,9953.2
16.440000000,9958.6
16.460000000,9886.4
16.480000000,9826.5
16.500000000,9801.6
16.520000000,9831.3
16.540000000,9969.7
16.560000000,9976.0
16.580000000,9906.9
16.600000000,9831.3
16.620000000,9944.0
16.640000000,9939.1
16.660000000,9926.9
16.680000000,9947.1
16.700000000,9776.5
16.720000000,9918.4
16.740000000,9944.0
16.760000000,9805.7
16.780000000,9985.5
16.800000000,9948.5
16.820000000,9832.1
16.840000000,9725.4
16.860000000,9777.2
16.880000000,9759.2
16.900000000,9864.5
16.920000000,9985.1
16.940000000,9918.1
16.960000000,9848.9
16.980000000,9824.0
17.000000000,9814.4
17.020000000,9788.1
17.040000000,9722.6
17.060000000,9690.4
17.080000000,9702.0
17.100000000,9753.1
17.120000000,9743.2
17.140000000,9711.4
17.160000000,9621.7
17.180000000,9497.9
17.200000000,9516.9
17.220000000,9601.1
17.240000000,9554.2
17.260000000,9451.5
17.280000000,9623.7
17.300000000,9547.2
17.320000000,9489.7
17.340000000,9523.4
17.360000000,9711.5
17.380000000,9642.2
17.400000000,9565.7
17.420000000,9498.7
17.440000000,9449.1
17.460000000,9500.1
17.480000000,9532.8
17.500000000,9564.8
17.520000000,9597.4
17.540000000,9516.6
17.560000000,9518.5
17.580000000,9497.9
17.600000000,9434.9
17.620000000,9455.5
17.640000000,9470.4
17.660000000,9546.7
17.680000000,9641.0
17.700000000,9577.0
17.720000000,9415.3
17.740000000,9406.2
17.760000000,9508.0
17.780000000,9583.4
17.800000000,9497.8
17.820000000,9460.6
17.840000000,9504.1
17.860000000,9644.8
17.880000000,9468.1
17.900000000,9517.8
17.920000000,9580.3
17.940000000,9511.3
17.960000000,9473.9
17.980000000,9514.2
18.000000000,9469.2
18.020000000,9326.1
18.040000000,9423.6
18.060000000,9446.0
18.080000000,9480.8
18.100000000,9556.6
18.120000000,9687.6
18.140000000,9582.7
18.160000000,9498.4
18.180000000,9466.8
18.200000000,9473.6
18.220000000,9619.1
18.240000000,9619.4
18.260000000,9530.2
18.280000000,9443.7
18.300000000,9606.7
18.320000000,9741.2
18.340000000,9805.8
18.360000000,9783.6
18.380000000,9869.7
18.400000000,9806.2
18.420000000,9799.2
18.440000000,9897.1
18.460000000,9786.6
18.480000000,9816.2
18.500000000,9892.7
18.520000000,9963.9
18.540000000,9947.1
18.560000000,9959.6
18.580000000,10004.2
18.600000000,10044.9
18.620000000,10008.4
18.640000000,9990.3
18.660000000,10066.4
18.680000000,10151.9
18.700000000,10132.1
18.720000000,10317.8
18.740000000,10283.9
18.760000000,10249.2
18.780000000,10378.0
18.800000000,10343.0
18.820000000,10324.4
18.840000000,10278.3
18.860000000,10197.3
18.880000000,10182.8
18.900000000,10213.7
18.920000000,10341.7
18.940000000,10522.2
18.960000000,10534.4
18.980000000,10514.2
19.000000000,10549.7
19.020000000,10608.3
19.040000000,10584.7
19.060000000,10559.7
19.080000000,10564.0
19.100000000,10553.2
19.120000000,10464.1
19.140000000,10589.3
19.160000000,10651.5
19.180000000,10650.9
19.200000000,10608.1
19.220000000,10816.7
19.240000000,10711.3
19.260000000,10710.4
19.280000000,10962.6
19.300000000,10849.1
19.320000000,10819.3
19.340000000,10845.2
19.360000000,10924.3
19.380000000,11085.0
19.400000000,11016.6
19.420000000,11028.5
19.440000000,11134.9
19.460000000,11225.6
19.480000000,11299.4
19.500000000,11343.2
19.520000000,11351.2
19.540000000,11317.7
19.560000000,11468.3
19.580000000,11411.0
19.600000000,11371.9
19.620000000,11559.7
19.640000000,11702.9
19.660000000,11628.5
19.680000000,11552.4
19.700000000,11602.9
19.720000000,11771.3
19.740000000,11904.2
19.760000000,11967.6
19.780000000,11999.1
19.800000000,12210.1
19.820000000,12197.4
19.840000000,12282.3
19.860000000,12439.8
19.880000000,12434.5
19.900000000,12555.2
19.920000000,12657.6
19.940000000,12749.7
19.960000000,12868.5
19.980000000,13029.4
20.000000000,13083.0
20.020000000,13227.3
20.040000000,13639.4
20.060000000,13653.1
20.080000000,13841.9
20.100000000,14067.8
20.120000000,14249.3
20.140000000,14447.3
20.160000000,14751.5
20.180000000,15060.3
20.200000000,15309.9
20.220000000,15394.5
20.240000000,15936.5
20.260000000,16424.3
20.280000000,16850.2
20.300000000,17514.3
20.320000000,17991.7
20.340000000,18540.5
20.360000000,19271.5
20.380000000,20313.4
20.400000000,21279.8
20.420000000,22379.1
20.440000000,23653.3
20.460000000,25128.3
20.480000000,26627.1
20.500000000,28373.5
20.520000000,30221.5
20.540000000,31977.5
20.560000000,32723.9
20.580000000,32867.4
20.600000000,32404.2
20.620000000,31331.9
20.640000000,29651.8
20.660000000,27949.5
20.680000000,26270.1
20.700000000,24606.9
20.720000000,22909.3
20.740000000,21741.3
20.760000000,20644.9
20.780000000,19589.6
20.800000000,18631.5
20.820000000,18165.1
20.840000000,17742.1
20.860000000,17282.9
20.880000000,16730.6
20.900000000,16425.2
20.920000000,16057.3
20.940000000,15653.0
20.960000000,15270.4
20.980000000,15342.0
21.000000000,15241.7
21.020000000,15027.3
21.040000000,14749.5
21.060000000,14540.0
21.080000000,14550.0
21.100000000,14430.7
21.120000000,14225.1
21.140000000,14357.6
21.160000000,14132.6
21.180000000,14072.1
21.200000000,14166.6
21.220000000,14250.4
21.240000000,14391.0
21.260000000,14374.2
21.280000000,14389.4
21.300000000,14670.9
21.320000000,14655.7
21.340000000,14798.8
21.360000000,14987.1
21.380000000,15142.1
21.400000000,15398.0
21.420000000,15680.9
21.440000000,15932.3
21.460000000,16143.8
21.480000000,16431.7
21.500000000,16664.3
21.520000000,17084.7
21.540000000,17688.9
21.560000000,18228.9
21.580000000,18565.4
21.600000000,18917.3
21.620000000,19361.4
21.640000000,19979.8
21.660000000,20640.3
21.680000000,20979.8
21.700000000,21251.9
21.720000000,21808.6
21.740000000,21723.4
21.760000000,21730.9
21.780000000,21486.0
21.800000000,20722.4
21.820000000,19668.4
21.840000000,18742.0
21.860000000,17789.9
21.880000000,16758.9
21.900000000,15819.9
21.920000000,15064.4
21.940000000,14363.6
21.960000000,13731.6
21.980000000,13362.9
22.000000000,13074.9
22.020000000,12868.8
22.040000000,12628.6
22.060000000,12104.6
22.080000000,11972.3
22.100000000,11763.9
22.120000000,11554.7
22.140000000,11497.6
22.160000000,11449.5
22.180000000,11197.7
22.200000000,10906.4
22.220000000,10722.2
22.240000000,10627.0
22.260000000,10545.3
22.280000000,10437.4
22.300000000,10291.6
22.320000000,10179.6
22.340000000,10022.1
22.360000000,9835.3
22.380000000,9674.4
22.400000000,9729.3
22.420000000,9653.3
22.440000000,9574.1
22.460000000,9496.8
22.480000000,9375.7
22.500000000,9323.3
22.520000000,9194.1
22.540000000,9080.7
22.560000000,9134.0
22.580000000,9056.6
22.600000000,8902.4
22.620000000,8783.6
22.640000000,8797.4
22.660000000,8830.9
22.680000000,8703.5
22.700000000,8643.4
22.720000000,8749.8
22.740000000,8748.3
22.760000000,8715.5
22.780000000,8769.8
22.800000000,8875.3
22.820000000,8705.4
22.840000000,8663.8
22.860000000,8754.4
22.880000000,8843.9
22.900000000,8602.4
22.920000000,8503.3
22.940000000,8469.5
22.960000000,8505.0
22.980000000,8627.6
23.000000000,8420.0
23.020000000,8291.8
23.040000000,8244.6
23.060000000,8260.5
23.080000000,8185.1
23.100000000,8127.3
23.120000000,8090.8
23.140000000,8066.8
23.160000000,7957.9
23.180000000,7900.7
23.200000000,7780.4
23.220000000,7624.3
23.240000000,7755.3
23.260000000,7604.2
23.280000000,7602.2
23.300000000,7707.3
23.320000000,7546.6
23.340000000,7566.1
23.360000000,7623.8
23.380000000,7680.9
23.400000000,7702.2
23.420000000,7467.4
23.440000000,7428.6
23.460000000,7479.9
23.480000000,7489.9
23.500000000,7445.0
23.520000000,7558.3
23.540000000,7651.6
23.560000000,7603.5
23.580000000,7399.4
23.600000000,7447.1
23.620000000,7457.4
23.640000000,7358.4
23.660000000,7388.1
23.680000000,7417.8
23.700000000,7386.0
23.720000000,7328.5
23.740000000,7388.6
23.760000000,7330.3
23.780000000,7341.6
23.800000000,7391.1
23.820000000,7380.5
23.840000000,7358.2
23.860000000,7310.4
23.880000000,7286.8
23.900000000,7341.9
23.920000000,7459.2
23.940000000,7482.8
23.960000000,7489.6
23.980000000,7531.8
24.000000000,7567.6
24.020000000,7629.5
24.040000000,7686.9
24.060000000,7765.1
24.080000000,8070.5
24.100000000,8241.5
24.120000000,8702.1
24.140000000,9413.1
24.160000000,9911.2
24.180000000,10333.7
24.200000000,10415.8
24.220000000,10116.7
24.240000000,9434.3
24.260000000,8913.4
24.280000000,8377.0
24.300000000,7847.9
24.320000000,7367.7
24.340000000,7328.1
24.360000000,7279.0
24.380000000,7215.2
24.400000000,7139.1
24.420000000,7126.2
24.440000000,6948.1
24.460000000,6878.3
24.480000000,6991.3
24.500000000,6963.2
24.520000000,6906.4
24.540000000,6956.7
24.560000000,7044.2
24.580000000,6814.2
24.600000000,6969.8
24.620000000,6966.4
24.640000000,6866.7
24.660000000,6968.7
24.680000000,6948.6
24.700000000,6945.1
24.720000000,6913.0
24.740000000,6785.1
24.760000000,6903.7
24.780000000,6865.7
24.800000000,6795.3
24.820000000,6792.9
24.840000000,6824.1
24.860000000,6784.8
24.880000000,6735.1
24.900000000,6718.6
24.920000000,6814.6
24.940000000,6829.3
24.960000000,6814.6
24.980000000,6798.0
25.000000000,6820.1
25.020000000,6772.7
25.040000000,6805.9
25.060000000,6866.8
25.080000000,6787.6
25.100000000,6809.6
25.120000000,6817.7
25.140000000,6777.4
25.160000000,6657.1
25.180000000,6723.9
25.200000000,6755.8
25.220000000,6785.3
25.240000000,6833.4
25.260000000,6745.1
25.280000000,6795.7
25.300000000,6858.2
25.320000000,6877.8
25.340000000,6955.4
25.360000000,6896.1
25.380000000,6865.8
25.400000000,6914.6
25.420000000,7022.0
25.440000000,6850.9
25.460000000,6847.2
25.480000000,6991.0
25.500000000,7042.0
25.520000000,7084.6
25.540000000,7067.2
25.560000000,7047.3
25.580000000,7112.8
25.600000000,7082.6
25.620000000,7038.4
25.640000000,6988.4
25.660000000,6936.5
25.680000000,6831.4
25.700000000,6773.5
25.720000000,6755.4
25.740000000,6757.3
25.760000000,6664.4
25.780000000,6739.0
25.800000000,6759.9
25.820000000,6694.4
25.840000000,6733.3
25.860000000,6637.8
25.880000000,6647.9
25.900000000,6722.2
25.920000000,6639.2
25.940000000,6609.7
25.960000000,6682.7
25.980000000,6770.7
26.000000000,6734.9
26.020000000,6603.5
26.040000000,6570.1
26.060000000,6589.7
26.080000000,6609.5
26.100000000,6567.7
26.120000000,6650.6
26.140000000,6664.8
26.160000000,6529.3
26.180000000,6574.2
26.200000000,6643.0
26.220000000,6651.5
26.240000000,6599.1
26.260000000,6625.0
26.280000000,6583.4
26.300000000,6524.1
26.320000000,6504.8
26.340000000,6646.5
26.360000000,6630.4
26.380000000,6615.6
26.400000000,6610.2
26.420000000,6596.5
26.440000000,6637.2
26.460000000,6665.9
26.480000000,6663.5
26.500000000,6614.9
26.520000000,6571.4
26.540000000,6597.0
26.560000000,6604.6
26.580000000,6550.5
26.600000000,6567.2
26.620000000,6562.2
26.640000000,6577.4
26.660000000,6601.3
26.680000000,6495.4
26.700000000,6539.1
26.720000000,6616.6
26.740000000,6678.1
26.760000000,6664.4
26.780000000,6669.8
26.800000000,6665.0
26.820000000,6644.1
26.840000000,6603.7
26.860000000,6637.7
26.880000000,6586.3
26.900000000,6523.3
26.920000000,6537.4
26.940000000,6615.9
26.960000000,6571.9
26.980000000,6493.7
27.000000000,6444.1
27.020000000,6419.7
27.040000000,6421.0
27.060000000,6393.9
27.080000000,6359.4
27.100000000,6548.3
27.120000000,6498.5
27.140000000,6434.7
27.160000000,6436.7
27.180000000,6564.6
27.200000000,6600.6
27.220000000,6627.6
27.240000000,6654.0
27.260000000,6673.0
27.280000000,6705.8
27.300000000,6924.7
27.320000000,7129.0
27.340000000,7081.6
27.360000000,7245.3
27.380000000,7134.3
27.400000000,6963.1
27.420000000,6890.5
27.440000000,6854.7
27.460000000,6835.6
27.480000000,6772.2
27.500000000,6647.3
27.520000000,6527.7
27.540000000,6686.7
27.560000000,6712.5
27.580000000,6573.3
27.600000000,6543.6
27.620000000,6529.3
27.640000000,6538.7
27.660000000,6592.3
27.680000000,6727.9
27.700000000,6688.7
27.720000000,6685.3
27.740000000,6724.0
27.760000000,6794.0
27.780000000,6811.5
27.800000000,6830.1
27.820000000,6843.4
27.840000000,6848.8
27.860000000,6877.7
27.880000000,6923.8
27.900000000,7015.4
27.920000000,7144.0
27.940000000,7168.4
27.960000000,7261.8
27.980000000,7371.5
28.000000000,7482.6
28.020000000,7599.8
28.040000000,7579.2
28.060000000,7694.4
28.080000000,7845.4
28.100000000,7724.3
28.120000000,7817.5
28.140000000,7766.7
28.160000000,7661.8
28.180000000,7658.0
28.200000000,7693.5
28.220000000,7690.5
28.240000000,7677.0
28.260000000,7666.7
28.280000000,7474.0
28.300000000,7537.9
28.320000000,7533.9
28.340000000,7362.4
28.360000000,7532.3
28.380000000,7589.2
28.400000000,7620.7
28.420000000,7665.6
28.440000000,7760.0
28.460000000,7754.6
28.480000000,7783.5
28.500000000,7863.1
28.520000000,7973.5
28.540000000,8086.1
28.560000000,8155.1
28.580000000,8247.4
28.600000000,8460.6
28.620000000,8544.2
28.640000000,8635.4
28.660000000,8832.8
28.680000000,9199.0
28.700000000,9288.9
28.720000000,9480.8
28.740000000,9676.2
28.760000000,9843.6
28.780000000,10170.3
28.800000000,10356.4
28.820000000,10662.4
28.840000000,11133.1
28.860000000,11577.1
28.880000000,12151.2
28.900000000,12587.7
28.920000000,12966.1
28.940000000,13607.3
28.960000000,14245.8
28.980000000,14958.3
29.000000000,15710.6
29.020000000,16440.2
29.040000000,17258.3
29.060000000,18182.0
29.080000000,19107.0
29.100000000,19939.5
29.120000000,20856.5
29.140000000,21882.0
29.160000000,22700.8
29.180000000,23133.1
29.200000000,23288.5
29.220000000,23056.7
29.240000000,22656.5
29.260000000,22096.7
29.280000000,21059.4
29.300000000,19750.4
29.320000000,18322.0
29.340000000,16968.1
29.360000000,16097.6
29.380000000,14884.7
29.400000000,13902.6
29.420000000,13152.6
29.440000000,12530.4
29.460000000,12002.5
29.480000000,11652.6
29.500000000,11347.6
29.520000000,10953.9
29.540000000,10666.0
29.560000000,10495.2
29.580000000,10313.2
29.600000000,10070.9
29.620000000,10092.2
29.640000000,9836.4
29.660000000,9656.7
29.680000000,9652.5
29.700000000,9616.0
29.720000000,9618.9
29.740000000,9620.4
29.760000000,9600.7
29.780000000,9532.9
29.800000000,9423.4
29.820000000,9298.9
29.840000000,9232.4
29.860000000,9340.5
29.880000000,9388.1
29.900000000,9308.6
29.920000000,9229.8
29.940000000,9287.5
29.960000000,9263.1
29.980000000,9319.5
30.000000000,9407.0
30.020000000,9481.2
30.040000000,9447.0
30.060000000,9564.7
30.080000000,9618.0
30.100000000,9560.3
30.120000000,9633.5
30.140000000,9634.0
30.160000000,9784.0
30.180000000,9997.4
30.200000000,9851.2
30.220000000,10025.3
30.240000000,10179.6
30.260000000,10267.4
30.280000000,10291.8
30.300000000,10363.9
30.320000000,10447.8
30.340000000,10568.0
30.360000000,10751.6
30.380000000,10803.4
30.400000000,10921.6
30.420000000,11096.8
30.440000000,11316.9
30.460000000,11537.0
30.480000000,11601.6
30.500000000,11811.5
30.520000000,12221.4
30.540000000,12360.1
30.560000000,12481.2
30.580000000,12725.5
30.600000000,13066.8
30.620000000,13297.5
30.640000000,13743.7
30.660000000,14317.9
30.680000000,14889.4
30.700000000,15232.1
30.720000000,15869.6
30.740000000,16440.1
30.760000000,17177.5
30.780000000,18385.0
30.800000000,19484.8
30.820000000,20819.9
30.840000000,22468.5
30.860000000,24500.7
30.880000000,27118.3
30.900000000,30632.4
30.920000000,35059.8
30.940000000,40091.6
30.960000000,43812.0
30.980000000,45277.6
31.000000000,46281.9
31.020000000,47485.0
31.040000000,49285.4
31.060000000,50337.6
31.080000000,51760.3
31.100000000,53594.5
31.120000000,55532.0
31.140000000,55919.0
31.160000000,56114.7
31.180000000,55794.0
31.200000000,54420.8
31.220000000,52125.3
31.240000000,49633.5
31.260000000,46944.5
31.280000000,44083.5
31.300000000,41449.9
31.320000000,39104.6
31.340000000,36986.6
31.360000000,35090.8
31.380000000,33599.6
31.400000000,32158.5
31.420000000,30869.0
31.440000000,29684.9
31.460000000,28317.9
31.480000000,27306.1
31.500000000,26540.4
31.520000000,25916.6
31.540000000,25251.0
31.560000000,24458.5
31.580000000,23843.1
31.600000000,23359.3
31.620000000,22905.4
31.640000000,22496.6
31.660000000,22015.1
31.680000000,21580.7
31.700000000,21285.9
31.720000000,20835.0
31.740000000,20375.2
31.760000000,20062.5
31.780000000,19946.5
31.800000000,19747.0
31.820000000,19404.0
31.840000000,19136.2
31.860000000,19007.7
31.880000000,18970.4
31.900000000,18621.6
31.920000000,18326.0
31.940000000,18066.0
31.960000000,17625.8
31.980000000,17195.3
32.000000000,16867.4
32.020000000,16527.6
32.040000000,15996.0
32.060000000,15807.6
32.080000000,15560.3
32.100000000,15309.5
32.120000000,15106.1
32.140000000,14692.6
32.160000000,14287.9
32.180000000,14166.3
32.200000000,14385.4
32.220000000,14076.9
32.240000000,13890.6
32.260000000,13824.1
32.280000000,13793.0
32.300000000,13443.4
32.320000000,13421.6
32.340000000,13422.7
32.360000000,13420.4
32.380000000,13517.1
32.400000000,13657.4
32.420000000,14021.9
32.440000000,14466.4
32.460000000,14733.7
32.480000000,14676.3
32.500000000,14240.4
32.520000000,13668.0
32.540000000,13192.3
32.560000000,12333.2
32.580000000,11605.7
32.600000000,10969.9
32.620000000,10425.8
32.640000000,10214.1
32.660000000,10135.6
32.680000000,10059.1
32.700000000,9939.1
32.720000000,9808.1
32.740000000,9728.9
32.760000000,9690.4
32.780000000,9657.9
32.800000000,9544.4
32.820000000,9390.5
32.840000000,9168.2
32.860000000,8939.4
32.880000000,8813.0
32.900000000,8805.8
32.920000000,8533.8
32.940000000,8247.6
32.960000000,8225.7
32.980000000,8212.8
33.000000000,8069.8
33.020000000,7976.3
33.040000000,8029.7
33.060000000,7965.8
33.080000000,7952.8
33.100000000,7959.2
33.120000000,7937.1
33.140000000,7714.8
33.160000000,7651.1
33.180000000,7630.9
33.200000000,7646.2
33.220000000,7759.6
33.240000000,7637.6
33.260000000,7561.2
33.280000000,7528.0
33.300000000,7464.1
33.320000000,7382.7
33.340000000,7409.9
33.360000000,7408.2
33.380000000,7219.7
33.400000000,7121.5
33.420000000,7161.8
33.440000000,7248.9
33.460000000,7303.6
33.480000000,7203.9
33.500000000,7132.5
33.520000000,7105.8
33.540000000,7119.7
33.560000000,7109.8
33.580000000,6955.9
33.600000000,6944.8
33.620000000,7027.9
33.640000000,6807.8
33.660000000,6858.0
33.680000000,6918.0
33.700000000,6907.0
33.720000000,6747.0
33.740000000,6766.7
33.760000000,6775.1
33.780000000,6770.5
33.800000000,6766.1
33.820000000,6778.2
33.840000000,6697.7
33.860000000,6679.9
33.880000000,6815.5
33.900000000,6701.3
33.920000000,6720.0
33.940000000,6716.5
33.960000000,6637.1
33.980000000,6614.3
34.000000000,6615.0
34.020000000,6615.0
34.040000000,6614.3
34.060000000,6637.1
34.080000000,6552.1
34.100000000,6561.4
34.120000000,6631.7
34.140000000,6626.3
34.160000000,6636.7
34.180000000,6544.3
34.200000000,6477.5
34.220000000,6608.5
34.240000000,6474.7
34.260000000,6470.0
34.280000000,6493.2
34.300000000,6461.9
34.320000000,6442.1
34.340000000,6448.9
34.360000000,6458.3
34.380000000,6448.9
34.400000000,6362.8
34.420000000,6385.8
34.440000000,6460.4
34.460000000,6503.9
34.480000000,6285.3
34.500000000,6287.7
34.520000000,6370.1
34.540000000,6440.0
34.560000000,6352.4
34.580000000,6519.6
34.600000000,6550.9
34.620000000,6506.5
34.640000000,6514.9
34.660000000,6464.6
34.680000000,6495.8
34.700000000,6454.5
34.720000000,6231.9
34.740000000,6333.2
34.760000000,6350.5
34.780000000,6365.2
34.800000000,6408.7
34.820000000,6378.2
34.840000000,6279.2
34.860000000,6261.7
34.880000000,6317.1
34.900000000,6212.0
34.920000000,6311.3
34.940000000,6334.7
34.960000000,6275.3
34.980000000,6246.4
35.000000000,6198.5
35.020000000,6246.3
35.040000000,6335.2
35.060000000,6370.3
35.080000000,6233.0
35.100000000,6222.0
35.120000000,6273.7
35.140000000,6316.2
35.160000000,6246.9
35.180000000,6277.3
35.200000000,6294.9
35.220000000,6255.0
35.240000000,6334.2
35.260000000,6250.8
35.280000000,6194.1
35.300000000,6210.4
35.320000000,6200.5
35.340000000,6151.2
35.360000000,6102.1
35.380000000,6089.5
35.400000000,6181.7
35.420000000,6268.3
35.440000000,6360.7
35.460000000,6417.5
35.480000000,6373.3
35.500000000,6182.7
35.520000000,6160.1
35.540000000,6215.0
35.560000000,6247.3
35.580000000,6289.2
35.600000000,6267.1
35.620000000,6214.6
35.640000000,6156.2
35.660000000,6115.1
35.680000000,6222.4
35.700000000,6210.7
35.720000000,6056.8
35.740000000,6133.7
35.760000000,6014.1
35.780000000,6018.3
35.800000000,6167.3
35.820000000,6318.1
35.840000000,6149.0
35.860000000,6184.2
35.880000000,6315.7
35.900000000,6260.1
35.920000000,6360.6
35.940000000,6416.3
35.960000000,6389.2
35.980000000,6258.1
36.000000000,6348.0
36.020000000,6312.3
36.040000000,6326.8
36.060000000,6479.8
36.080000000,6466.1
36.100000000,6409.0
36.120000000,6396.1
36.140000000,6465.3
36.160000000,6619.2
36.180000000,6589.9
36.200000000,6679.7
36.220000000,6841.2
36.240000000,6720.9
36.260000000,6885.5
36.280000000,6934.6
36.300000000,6901.4
36.320000000,6940.2
36.340000000,7095.3
36.360000000,7129.6
36.380000000,7156.9
36.400000000,7312.7
36.420000000,7292.9
36.440000000,7333.5
36.460000000,7410.7
36.480000000,7492.2
36.500000000,7416.1
36.520000000,7669.8
36.540000000,7818.4
36.560000000,7724.6
36.580000000,7707.1
36.600000000,7885.9
36.620000000,8082.6
36.640000000,8226.5
36.660000000,8249.4
36.680000000,8345.6
36.700000000,8378.4
36.720000000,8320.7
36.740000000,8160.7
36.760000000,8303.9
36.780000000,8152.1
36.800000000,8008.4
36.820000000,8267.0
36.840000000,8105.5
36.860000000,7861.2
36.880000000,7608.8
36.900000000,7403.8
36.920000000,7207.3
36.940000000,7010.8
36.960000000,6913.4
36.980000000,6908.4
37.000000000,6677.7
37.020000000,6522.6
37.040000000,6403.1
37.060000000,6307.5
37.080000000,6235.9
37.100000000,6197.6
37.120000000,6207.0
37.140000000,6211.6
37.160000000,6101.9
37.180000000,6277.7
37.200000000,6287.3
37.220000000,6222.4
37.240000000,6240.0
37.260000000,6280.3
37.280000000,6183.5
37.300000000,6056.1
37.320000000,5983.0
37.340000000,5897.7
37.360000000,5903.3
37.380000000,5932.9
37.400000000,5938.1
37.420000000,5829.9
37.440000000,5745.1
37.460000000,5768.9
37.480000000,5854.9
37.500000000,5743.7
37.520000000,5793.8
37.540000000,5841.8
37.560000000,5819.0
37.580000000,5640.8
37.600000000,5598.3
37.620000000,5648.3
37.640000000,5699.9
37.660000000,5636.7
37.680000000,5596.8
37.700000000,5616.5
37.720000000,5647.0
37.740000000,5644.8
37.760000000,5600.6
37.780000000,5510.4
37.800000000,5431.9
37.820000000,5401.2
37.840000000,5447.6
37.860000000,5489.2
37.880000000,5512.6
37.900000000,5513.9
37.920000000,5495.6
37.940000000,5508.0
37.960000000,5508.1
37.980000000,5487.2
38.000000000,5445.4
38.020000000,5410.5
38.040000000,5423.8
38.060000000,5472.9
38.080000000,5533.8
38.100000000,5509.6
38.120000000,5477.1
38.140000000,5459.7
38.160000000,5474.6
38.180000000,5463.9
38.200000000,5459.3
38.220000000,5499.5
38.240000000,5584.9
38.260000000,5545.3
38.280000000,5502.7
38.300000000,5564.6
38.320000000,5722.0
38.340000000,5776.8
38.360000000,5866.0
38.380000000,5922.7
38.400000000,5958.4
38.420000000,6036.1
38.440000000,6137.4
38.460000000,6201.8
38.480000000,6294.4
38.500000000,6523.7
38.520000000,6735.9
38.540000000,6859.2
38.560000000,6941.7
38.580000000,7028.1
38.600000000,6970.2
38.620000000,7003.4
38.640000000,6992.2
38.660000000,6876.2
38.680000000,6867.8
38.700000000,6658.9
38.720000000,6448.1
38.740000000,6295.0
38.760000000,6121.4
38.780000000,5981.1
38.800000000,5882.5
38.820000000,5810.7
38.840000000,5721.6
38.860000000,5620.1
38.880000000,5555.5
38.900000000,5525.7
38.920000000,5517.3
38.940000000,5493.5
38.960000000,5429.0
38.980000000,5372.3
39.000000000,5372.3
39.020000000,5345.7
39.040000000,5230.1
39.060000000,5192.8
39.080000000,5315.9
39.100000000,5314.3
39.120000000,5174.5
39.140000000,5071.7
39.160000000,5084.2
39.180000000,5235.8
39.200000000,5238.1
39.220000000,5236.9
39.240000000,5216.1
39.260000000,5028.7
39.280000000,5178.7
39.300000000,5185.8
39.320000000,5092.7
39.340000000,5084.4
39.360000000,5102.2
39.380000000,5147.2
39.400000000,5169.9
39.420000000,5118.7
39.440000000,5100.4
39.460000000,5072.0
39.480000000,5037.7
39.500000000,5011.4
39.520000000,5106.6
39.540000000,5078.9
39.560000000,5100.4
39.580000000,5188.7
39.600000000,5034.9
39.620000000,4985.4
39.640000000,4973.6
39.660000000,4982.2
39.680000000,5013.4
39.700000000,5095.3
39.720000000,5109.4
39.740000000,5071.1
39.760000000,5040.6
39.780000000,5069.3
39.800000000,5034.2
39.820000000,5012.6
39.840000000,5101.4
39.860000000,5148.6
39.880000000,5177.3
39.900000000,5135.6
39.920000000,5008.5
39.940000000,5087.7
39.960000000,5084.5
39.980000000,5022.8
40.000000000,4944.8
40.020000000,5027.8
40.040000000,5176.1
40.060000000,5243.2
40.080000000,5193.2
40.100000000,5047.8
40.120000000,5059.4
40.140000000,5104.1
40.160000000,5131.0
40.180000000,5079.2
40.200000000,5091.0
40.220000000,5157.0
40.240000000,5219.9
40.260000000,5210.0
40.280000000,5222.9
40.300000000,5157.5
40.320000000,5102.8
40.340000000,5125.1
40.360000000,5126.6
40.380000000,5123.0
40.400000000,5203.0
40.420000000,5359.5
40.440000000,5265.1
40.460000000,5244.5
40.480000000,5224.1
40.500000000,5187.6
40.520000000,5157.9
40.540000000,5295.0
40.560000000,5296.7
40.580000000,5201.4
40.600000000,5202.9
40.620000000,5149.2
40.640000000,5203.6
40.660000000,5262.7
40.680000000,5172.8
40.700000000,5273.1
40.720000000,5327.2
40.740000000,5298.9
40.760000000,5176.9
40.780000000,5231.7
40.800000000,5353.5
40.820000000,5376.0
40.840000000,5241.5
40.860000000,5175.3
40.880000000,5261.3
40.900000000,5321.7
40.920000000,5332.3
40.940000000,5426.0
40.960000000,5321.0
40.980000000,5232.3
41.000000000,5207.9
41.020000000,5262.7
41.040000000,5141.3
41.060000000,5132.0
41.080000000,5195.4
41.100000000,5237.3
41.120000000,5155.7
41.140000000,5095.4
41.160000000,5099.3
41.180000000,5194.5
41.200000000,5205.9
41.220000000,5242.9
41.240000000,5270.0
41.260000000,5259.0
41.280000000,5153.9
41.300000000,5121.8
41.320000000,5185.0
41.340000000,5303.7
41.360000000,5283.9
41.380000000,5340.1
41.400000000,5436.9
41.420000000,5526.4
41.440000000,5510.4
41.460000000,5522.2
41.480000000,5500.1
41.500000000,5507.0
41.520000000,5646.4
41.540000000,5862.2
41.560000000,5892.7
41.580000000,5834.6
41.600000000,5799.2
41.620000000,6004.9
41.640000000,6058.7
41.660000000,6073.1
41.680000000,6117.7
41.700000000,6187.8
41.720000000,6268.6
41.740000000,6394.3
41.760000000,6569.4
41.780000000,6756.8
41.800000000,6892.7
41.820000000,7059.6
41.840000000,7258.0
41.860000000,7441.5
41.880000000,7681.6
41.900000000,7787.0
41.920000000,7827.2
41.940000000,7949.8
41.960000000,7989.3
41.980000000,7961.7
42.000000000,7883.7
42.020000000,7772.9
42.040000000,7619.8
42.060000000,7402.1
42.080000000,7157.4
42.100000000,6916.0
42.120000000,6721.8
42.140000000,6360.0
42.160000000,6161.1
42.180000000,6171.1
42.200000000,5963.2
42.220000000,5834.2
42.240000000,5742.2
42.260000000,5639.5
42.280000000,5422.5
42.300000000,5247.8
42.320000000,5144.1
42.340000000,5114.1
42.360000000,5155.2
42.380000000,5151.2
42.400000000,5058.7
42.420000000,4955.7
42.440000000,4927.5
42.460000000,4897.8
42.480000000,4869.7
42.500000000,4886.2
42.520000000,4962.1
42.540000000,4937.7
42.560000000,5044.0
42.580000000,5188.5
42.600000000,5341.1
42.620000000,5555.9
42.640000000,5460.1
42.660000000,5320.1
42.680000000,5209.3
42.700000000,5136.2
42.720000000,5088.8
42.740000000,5028.8
42.760000000,4930.1
42.780000000,4755.0
42.800000000,4767.0
42.820000000,4778.9
42.840000000,4726.9
42.860000000,4555.6
42.880000000,4621.1
42.900000000,4637.3
42.920000000,4629.3
42.940000000,4614.0
42.960000000,4556.8
42.980000000,4513.0
43.000000000,4470.3
43.020000000,4451.9
43.040000000,4617.9
43.060000000,4533.9
43.080000000,4532.0
43.100000000,4619.2
43.120000000,4516.4
43.140000000,4597.1
43.160000000,4631.4
43.180000000,4600.2
43.200000000,4537.7
43.220000000,4477.4
43.240000000,4489.9
43.260000000,4544.5
43.280000000,4596.9
43.300000000,4497.9
43.320000000,4442.4
43.340000000,4462.3
43.360000000,4567.5
43.380000000,4559.9
43.400000000,4497.5
43.420000000,4454.0
43.440000000,4450.6
43.460000000,4390.4
43.480000000,4433.3
43.500000000,4481.4
43.520000000,4517.9
43.540000000,4588.0
43.560000000,4504.8
43.580000000,4453.8
43.600000000,4461.4
43.620000000,4516.3
43.640000000,4439.8
43.660000000,4400.9
43.680000000,4420.8
43.700000000,4508.4
43.720000000,4573.3
43.740000000,4580.0
43.760000000,4537.1
43.780000000,4460.7
43.800000000,4474.4
43.820000000,4505.1
43.840000000,4507.1
43.860000000,4473.2
43.880000000,4518.1
43.900000000,4525.2
43.920000000,4517.3
43.940000000,4509.5
43.960000000,4529.3
43.980000000,4500.5
44.000000000,4494.0
44.020000000,4486.6
44.040000000,4395.9
44.060000000,4427.0
44.080000000,4459.7
44.100000000,4503.5
44.120000000,4585.7
44.140000000,4420.6
44.160000000,4409.0
44.180000000,4435.4
44.200000000,4395.9
44.220000000,4438.6
44.240000000,4482.9
44.260000000,4465.9
44.280000000,4375.1
44.300000000,4385.0
44.320000000,4359.8
44.340000000,4425.4
44.360000000,4541.5
44.380000000,4370.9
44.400000000,4376.6
44.420000000,4366.6
44.440000000,4319.8
44.460000000,4279.4
44.480000000,4299.0
44.500000000,4337.0
44.520000000,4348.4
44.540000000,4273.8
44.560000000,4251.9
44.580000000,4287.4
44.600000000,4323.1
44.620000000,4304.4
44.640000000,4234.3
44.660000000,4312.0
44.680000000,4352.2
44.700000000,4265.2
44.720000000,4246.9
44.740000000,4249.0
44.760000000,4259.5
44.780000000,4273.5
44.800000000,4289.5
44.820000000,4304.2
44.840000000,4311.8
44.860000000,4315.8
44.880000000,4328.8
44.900000000,4238.2
44.920000000,4173.9
44.940000000,4166.7
44.960000000,4240.6
44.980000000,4294.6
